Tiempo	Señal
t/ms	U/V

0,000	0,905
0,100	5,932
0,200	9,194
0,300	9,493
0,400	6,719
0,500	1,898
0,600	-3,181
0,700	-6,624
0,800	-7,137
0,900	-4,514
1,000	0,270
1,100	5,422
1,200	8,993
1,300	9,621
1,400	7,052
1,500	2,247
1,600	-2,975
1,700	-6,625
1,800	-7,305
1,900	-4,749
2,000	0,076
2,100	5,331
2,200	9,012
2,300	9,716
2,400	7,177
2,500	2,363
2,600	-2,889
2,700	-6,582
2,800	-7,319
2,900	-4,826
3,000	-0,057
3,100	5,177
3,200	8,891
3,300	9,685
3,400	7,263
3,500	2,546
3,600	-2,679
3,700	-6,436
3,800	-7,304
3,900	-4,955
4,000	-0,276
4,100	4,965
4,200	8,781
4,300	9,727
4,400	7,437
4,500	2,778
4,600	-2,488
4,700	-6,361
4,800	-7,368
4,900	-5,123
5,000	-0,476
5,100	4,809
5,200	8,722
5,300	9,775
5,400	7,567
5,500	2,938
5,600	-2,352
5,700	-6,292
5,800	-7,389
5,900	-5,228
6,000	-0,633
6,100	4,650
6,200	8,616
6,300	9,765
6,400	7,664
6,500	3,113
6,600	-2,162
6,700	-6,163
6,800	-7,373
6,900	-5,336
7,000	-0,822
7,100	4,458
7,200	8,504
7,300	9,782
7,400	7,805
7,500	3,320
7,600	-1,974
7,700	-6,068
7,800	-7,407
7,900	-5,480
8,000	-1,016
8,100	4,290
8,200	8,422
8,300	9,811
8,400	7,927
8,500	3,487
8,600	-1,824
8,700	-5,987
8,800	-7,422
8,900	-5,586
9,000	-1,177
9,100	4,129
9,200	8,320
9,300	9,807
9,400	8,028
9,500	3,659
9,600	-1,641
9,700	-5,865
9,800	-7,411
9,900	-5,695
10,000	-1,366
10,100	3,936
10,200	8,201
10,300	9,812
10,400	8,159
10,500	3,865
10,600	-1,443
10,700	-5,751
10,800	-7,424
10,900	-5,825
11,000	-1,561
11,100	3,752
11,200	8,095
11,300	9,819
11,400	8,268
11,500	4,031
11,600	-1,282
11,700	-5,654
11,800	-7,424
11,900	-5,921
12,000	-1,717
12,100	3,590
12,200	7,986
12,300	9,803
12,400	8,355
12,500	4,193
12,600	-1,104
12,700	-5,527
12,800	-7,401
12,900	-6,015
13,000	-1,897
13,100	3,393
13,200	7,850
13,300	9,783
13,400	8,460
13,500	4,381
13,600	-0,909
13,700	-5,403
13,800	-7,397
13,900	-6,131
14,000	-2,084
14,100	3,209
14,200	7,740
14,300	9,787
14,400	8,572
14,500	4,557
14,600	-0,735
14,700	-5,294
14,800	-7,388
14,900	-6,222
15,000	-2,241
15,100	3,043
15,200	7,624
15,300	9,763
15,400	8,650
15,500	4,709
15,600	-0,564
15,700	-5,169
15,800	-7,360
15,900	-6,307
16,000	-2,410
16,100	2,855
16,200	7,492
16,300	9,744
16,400	8,757
16,500	4,905
16,600	-0,353
16,700	-5,025
16,800	-7,337
16,900	-6,413
17,000	-2,600
17,100	2,655
17,200	7,359
17,300	9,727
17,400	8,857
17,500	5,079
17,600	-0,174
17,700	-4,907
17,800	-7,324
17,900	-6,506
18,000	-2,764
18,100	2,480
18,200	7,236
18,300	9,699
18,400	8,933
18,500	5,232
18,600	-0,001
18,700	-4,780
18,800	-7,293
18,900	-6,588
19,000	-2,935
19,100	2,282
19,200	7,083
19,300	9,650
19,400	9,009
19,500	5,403
19,600	0,200
19,700	-4,629
19,800	-7,250
19,900	-6,669
20,000	-3,105
20,100	2,091
20,200	6,949
20,300	9,623
20,400	9,099
20,500	5,573
20,600	0,384
20,700	-4,500
20,800	-7,224
20,900	-6,753
21,000	-3,267
21,100	1,910
21,200	6,814
21,300	9,582
21,400	9,165
21,500	5,723
21,600	0,562
21,700	-4,358
21,800	-7,173
21,900	-6,814
22,000	-3,420
22,100	1,722
22,200	6,662
22,300	9,527
22,400	9,231
22,500	5,886
22,600	0,761
22,700	-4,203
22,800	-7,121
22,900	-6,887
23,000	-3,588
23,100	1,527
23,200	6,516
23,300	9,488
23,400	9,312
23,500	6,054
23,600	0,950
23,700	-4,064
23,800	-7,085
23,900	-6,965
24,000	-3,750
24,100	1,339
24,200	6,370
24,300	9,435
24,400	9,370
24,500	6,201
24,600	1,134
24,700	-3,910
24,800	-7,016
24,900	-7,009
25,000	-3,891
25,100	1,153
25,200	6,210
25,300	9,363
25,400	9,417
25,500	6,351
25,600	1,327
25,700	-3,749
25,800	-6,954
25,900	-7,071
26,000	-4,056
26,100	0,950
26,200	6,047
26,300	9,302
26,400	9,477
26,500	6,505
26,600	1,513
26,700	-3,605
26,800	-6,904
26,900	-7,131
27,000	-4,200
27,100	0,778
27,200	5,911
27,300	9,252
27,400	9,531
27,500	6,644
27,600	1,689
27,700	-3,454
27,800	-6,832
27,900	-7,166
28,000	-4,330
28,100	0,598
28,200	5,749
28,300	9,169
28,400	9,563
28,500	6,782
28,600	1,881
28,700	-3,282
28,800	-6,749
28,900	-7,206
29,000	-4,478
29,100	0,400
29,200	5,580
29,300	9,097
29,400	9,615
29,500	6,937
29,600	2,077
29,700	-3,120
29,800	-6,682
29,900	-7,256
30,000	-4,622
30,100	0,219
30,200	5,430
30,300	9,032
30,400	9,657
30,500	7,070
30,600	2,253
30,700	-2,964
30,800	-6,600
30,900	-7,276
31,000	-4,738
31,100	0,050
31,200	5,271
31,300	8,945
31,400	9,678
31,500	7,195
31,600	2,437
31,700	-2,791
31,800	-6,509
31,900	-7,306
32,000	-4,881
32,100	-0,152
32,200	5,087
32,300	8,851
32,400	9,710
32,500	7,337
32,600	2,632
32,700	-2,622
32,800	-6,429
32,900	-7,344
33,000	-5,018
33,100	-0,333
33,200	4,932
33,300	8,777
33,400	9,743
33,500	7,462
33,600	2,802
33,700	-2,468
33,800	-6,348
33,900	-7,364
34,000	-5,133
34,100	-0,503
34,200	4,768
34,300	8,681
34,400	9,753
34,500	7,580
34,600	2,986
34,700	-2,286
34,800	-6,237
34,900	-7,370
35,000	-5,255
35,100	-0,693
35,200	4,586
35,300	8,582
35,400	9,779
35,500	7,721
35,600	3,188
35,700	-2,103
35,800	-6,143
35,900	-7,399
36,000	-5,392
36,100	-0,882
36,200	4,419
36,300	8,498
36,400	9,807
36,500	7,848
36,600	3,365
36,700	-1,940
36,800	-6,052
36,900	-7,411
37,000	-5,502
37,100	-1,052
37,200	4,249
37,300	8,391
37,400	9,804
37,500	7,952
37,600	3,541
37,700	-1,757
37,800	-5,934
37,900	-7,406
38,000	-5,618
38,100	-1,246
38,200	4,053
38,300	8,271
38,400	9,808
38,500	8,080
38,600	3,741
38,700	-1,564
38,800	-5,825
38,900	-7,422
39,000	-5,748
39,100	-1,437
39,200	3,876
39,300	8,173
39,400	9,823
39,500	8,197
39,600	3,913
39,700	-1,401
39,800	-5,727
39,900	-7,423
40,000	-5,845
40,100	-1,595
40,200	3,713
40,300	8,064
40,400	9,810
40,500	8,289
40,600	4,081
40,700	-1,217
40,800	-5,598
40,900	-7,401
41,000	-5,944
41,100	-1,781
41,200	3,512
41,300	7,929
41,400	9,796
41,500	8,405
41,600	4,281
41,700	-1,014
41,800	-5,473
41,900	-7,404
42,000	-6,071
42,100	-1,979
42,200	3,322
42,300	7,818
42,400	9,803
42,500	8,520
42,600	4,456
42,700	-0,846
42,800	-5,372
42,900	-7,404
43,000	-6,169
43,100	-2,140
43,200	3,153
43,300	7,700
43,400	9,777
43,500	8,598
43,600	4,614
43,700	-0,662
43,800	-5,230
43,900	-7,360
44,000	-6,246
44,100	-2,312
44,200	2,951
44,300	7,550
44,400	9,743
44,500	8,698
44,600	4,809
44,700	-0,453
44,800	-5,093
44,900	-7,352
45,000	-6,369
45,100	-2,514
45,200	2,752
45,300	7,431
45,400	9,743
45,500	8,809
45,600	4,979
45,700	-0,291
45,800	-4,997
45,900	-7,352
46,000	-6,460
46,100	-2,662
46,200	2,596
46,300	7,316
46,400	9,707
46,500	8,864
46,600	5,113
46,700	-0,120
46,800	-4,851
46,900	-7,287
47,000	-6,510
47,100	-2,817
47,200	2,392
47,300	7,146
47,400	9,646
47,500	8,946
47,600	5,308
47,700	0,106
47,800	-4,691
47,900	-7,265
48,000	-6,634
48,100	-3,032
48,200	2,181
48,300	7,028
48,400	9,664
48,500	9,081
48,600	5,494
48,700	0,266
48,800	-4,613
48,900	-7,281
49,000	-6,722
49,100	-3,150
49,200	2,070
49,300	6,946
49,400	9,623
49,500	9,091
49,600	5,565
49,700	0,394
49,800	-4,454
49,900	-7,150
50,000	-6,687
50,100	-3,256
50,200	1,838
50,300	6,676
50,400	9,450
50,500	9,128
50,600	5,835
50,700	0,794
50,800	-4,131
50,900	-7,126
51,000	-7,092
51,100	-4,041
