Tiempo	Señal
t/ms	U/V

0,000	1,479
0,100	6,269
0,200	9,507
0,300	9,988
0,400	7,529
0,500	3,043
0,600	-1,792
0,700	-5,158
0,800	-5,780
0,900	-3,411
1,000	1,064
1,100	5,956
1,200	9,409
1,300	10,104
1,400	7,769
1,500	3,286
1,600	-1,640
1,700	-5,135
1,800	-5,865
1,900	-3,553
2,000	0,922
2,100	5,856
2,200	9,376
2,300	10,149
2,400	7,884
2,500	3,445
2,600	-1,484
2,700	-5,035
2,800	-5,866
2,900	-3,661
3,000	0,742
3,100	5,679
3,200	9,280
3,300	10,180
3,400	8,035
3,500	3,657
3,600	-1,298
3,700	-4,949
3,800	-5,908
3,900	-3,809
4,000	0,554
4,100	5,526
4,200	9,218
4,300	10,230
4,400	8,175
4,500	3,835
4,600	-1,143
4,700	-4,870
4,800	-5,931
4,900	-3,924
5,000	0,389
5,100	5,373
5,200	9,138
5,300	10,258
5,400	8,306
5,500	4,022
5,600	-0,971
5,700	-4,778
5,800	-5,950
5,900	-4,038
6,000	0,239
6,100	5,259
6,200	9,120
6,300	10,352
6,400	8,487
6,500	4,231
6,600	-0,801
6,700	-4,698
6,800	-5,981
6,900	-4,164
7,000	0,063
7,100	5,094
7,200	9,020
7,300	10,354
7,400	8,593
7,500	4,406
7,600	-0,618
7,700	-4,577
7,800	-5,970
7,900	-4,271
8,000	-0,123
8,100	4,903
8,200	8,904
8,300	10,364
8,400	8,728
8,500	4,614
8,600	-0,420
8,700	-4,464
8,800	-5,984
8,900	-4,404
9,000	-0,321
9,100	4,715
9,200	8,794
9,300	10,368
9,400	8,840
9,500	4,792
9,600	-0,240
9,700	-4,349
9,800	-5,977
9,900	-4,509
10,000	-0,503
10,100	4,523
10,200	8,663
10,300	10,351
10,400	8,946
10,500	4,981
10,600	-0,044
10,700	-4,224
10,800	-5,974
10,900	-4,629
11,000	-0,697
11,100	4,332
11,200	8,550
11,300	10,357
11,400	9,065
11,500	5,165
11,600	0,138
11,700	-4,109
11,800	-5,963
11,900	-4,724
12,000	-0,867
12,100	4,141
12,200	8,397
12,300	10,286
12,400	9,094
12,500	5,276
12,600	0,282
12,700	-3,995
12,800	-5,936
12,900	-4,807
13,000	-1,038
13,100	3,941
13,200	8,245
13,300	10,243
13,400	9,177
13,500	5,452
13,600	0,477
13,700	-3,860
13,800	-5,915
13,900	-4,908
14,000	-1,220
14,100	3,748
14,200	8,112
14,300	10,214
14,400	9,257
14,500	5,605
14,600	0,643
14,700	-3,744
14,800	-5,894
14,900	-4,994
15,000	-1,388
15,100	3,555
15,200	7,960
15,300	10,159
15,400	9,319
15,500	5,760
15,600	0,832
15,700	-3,598
15,800	-5,851
15,900	-5,074
16,000	-1,562
16,100	3,355
16,200	7,812
16,300	10,118
16,400	9,398
16,500	5,923
16,600	1,013
16,700	-3,472
16,800	-5,828
16,900	-5,162
17,000	-1,727
17,100	3,171
17,200	7,675
17,300	10,075
17,400	9,462
17,500	6,070
17,600	1,186
17,700	-3,339
17,800	-5,788
17,900	-5,236
18,000	-1,893
18,100	2,974
18,200	7,520
18,300	10,021
18,400	9,529
18,500	6,230
18,600	1,373
18,700	-3,199
18,800	-5,753
18,900	-5,319
19,000	-2,062
19,100	2,785
19,200	7,381
19,300	9,983
19,400	9,603
19,500	6,385
19,600	1,552
19,700	-3,063
19,800	-5,710
19,900	-5,386
20,000	-2,216
20,100	2,596
20,200	7,226
20,300	9,917
20,400	9,650
20,500	6,528
20,600	1,735
20,700	-2,913
20,800	-5,654
20,900	-5,448
21,000	-2,374
21,100	2,404
21,200	7,073
21,300	9,864
21,400	9,716
21,500	6,684
21,600	1,918
21,700	-2,774
21,800	-5,612
21,900	-5,518
22,000	-2,529
22,100	2,223
22,200	6,934
22,300	9,817
22,400	9,779
22,500	6,836
22,600	2,104
22,700	-2,622
22,800	-5,549
22,900	-5,570
23,000	-2,675
23,100	2,038
23,200	6,782
23,300	9,759
23,400	9,840
23,500	6,994
23,600	2,298
23,700	-2,467
23,800	-5,494
23,900	-5,634
24,000	-2,834
24,100	1,845
24,200	6,628
24,300	9,700
24,400	9,896
24,500	7,140
24,600	2,480
24,700	-2,316
24,800	-5,429
24,900	-5,678
25,000	-2,969
25,100	1,669
25,200	6,478
25,300	9,634
25,400	9,940
25,500	7,282
25,600	2,666
25,700	-2,156
25,800	-5,357
25,900	-5,722
26,000	-3,112
26,100	1,485
26,200	6,325
26,300	9,572
26,400	9,994
26,500	7,431
26,600	2,853
26,700	-2,001
26,800	-5,290
26,900	-5,766
27,000	-3,246
27,100	1,312
27,200	6,180
27,300	9,510
27,400	10,041
27,500	7,570
27,600	3,036
27,700	-1,841
27,800	-5,214
27,900	-5,802
28,000	-3,383
28,100	1,126
28,200	6,018
28,300	9,438
28,400	10,089
28,500	7,724
28,600	3,239
28,700	-1,666
28,800	-5,131
28,900	-5,840
29,000	-3,523
29,100	0,942
29,200	5,863
29,300	9,372
29,400	10,138
29,500	7,870
29,600	3,428
29,700	-1,504
29,800	-5,053
29,900	-5,873
30,000	-3,653
30,100	0,765
30,200	5,706
30,300	9,296
30,400	10,175
30,500	8,010
30,600	3,620
30,700	-1,329
30,800	-4,962
30,900	-5,900
31,000	-3,786
31,100	0,580
31,200	5,545
31,300	9,225
31,400	10,225
31,500	8,165
31,600	3,824
31,700	-1,152
31,800	-4,875
31,900	-5,930
32,000	-3,916
32,100	0,405
32,200	5,395
32,300	9,160
32,400	10,271
32,500	8,306
32,600	4,009
32,700	-0,988
32,800	-4,789
32,900	-5,948
33,000	-4,022
33,100	0,263
33,200	5,282
33,300	9,132
33,400	10,352
33,500	8,477
33,600	4,217
33,700	-0,811
33,800	-4,701
33,900	-5,975
34,000	-4,151
34,100	0,080
34,200	5,111
34,300	9,034
34,400	10,361
34,500	8,590
34,600	4,394
34,700	-0,636
34,800	-4,592
34,900	-5,977
35,000	-4,267
35,100	-0,110
35,200	4,918
35,300	8,913
35,400	10,361
35,500	8,715
35,600	4,597
35,700	-0,433
35,800	-4,469
35,900	-5,982
36,000	-4,395
36,100	-0,310
36,200	4,725
36,300	8,801
36,400	10,371
36,500	8,837
36,600	4,782
36,700	-0,257
36,800	-4,367
36,900	-5,989
37,000	-4,510
37,100	-0,490
37,200	4,545
37,300	8,685
37,400	10,362
37,500	8,943
37,600	4,966
37,700	-0,060
37,800	-4,233
37,900	-5,971
38,000	-4,616
38,100	-0,682
38,200	4,343
38,300	8,555
38,400	10,356
38,500	9,063
38,600	5,164
38,700	0,135
38,800	-4,117
38,900	-5,976
39,000	-4,736
39,100	-0,868
39,200	4,161
39,300	8,441
39,400	10,346
39,500	9,154
39,600	5,319
39,700	0,301
39,800	-3,996
39,900	-5,943
40,000	-4,806
40,100	-1,023
40,200	3,966
40,300	8,267
40,400	10,249
40,500	9,163
40,600	5,423
40,700	0,449
40,800	-3,875
40,900	-5,909
41,000	-4,886
41,100	-1,192
41,200	3,771
41,300	8,121
41,400	10,208
41,500	9,239
41,600	5,581
41,700	0,621
41,800	-3,760
41,900	-5,899
42,000	-4,985
42,100	-1,367
42,200	3,583
42,300	7,986
42,400	10,171
42,500	9,312
42,600	5,735
42,700	0,798
42,800	-3,628
42,900	-5,866
43,000	-5,068
43,100	-1,539
43,200	3,384
43,300	7,836
43,400	10,127
43,500	9,390
43,600	5,903
43,700	0,987
43,800	-3,494
43,900	-5,839
44,000	-5,159
44,100	-1,711
44,200	3,196
44,300	7,698
44,400	10,087
44,500	9,456
44,600	6,047
44,700	1,153
44,800	-3,367
44,900	-5,801
45,000	-5,228
45,100	-1,868
45,200	3,002
45,300	7,537
45,400	10,018
45,500	9,507
45,600	6,197
45,700	1,344
45,800	-3,215
45,900	-5,750
46,000	-5,301
46,100	-2,034
46,200	2,812
46,300	7,400
46,400	9,988
46,500	9,591
46,600	6,358
46,700	1,516
46,800	-3,097
46,900	-5,727
47,000	-5,377
47,100	-2,182
47,200	2,645
47,300	7,269
47,400	9,937
47,500	9,640
47,600	6,493
47,700	1,693
47,800	-2,943
47,900	-5,660
48,000	-5,431
48,100	-2,344
48,200	2,434
48,300	7,093
48,400	9,871
48,500	9,713
48,600	6,674
48,700	1,903
48,800	-2,793
48,900	-5,628
49,000	-5,524
49,100	-2,515
49,200	2,257
49,300	6,976
49,400	9,846
49,500	9,775
49,600	6,795
49,700	2,042
49,800	-2,673
49,900	-5,561
50,000	-5,535
50,100	-2,615
50,200	2,084
50,300	6,783
50,400	9,714
50,500	9,780
50,600	6,965
50,700	2,325
50,800	-2,406
50,900	-5,468
51,000	-5,726
51,100	-3,083
